# Energy [eV]  ref_ind_xx  extinct_xx
   0.013610  0.365870E+01  0.226275E-01
   0.040820  0.365889E+01  0.229758E-01
   0.068030  0.365926E+01  0.233313E-01
   0.095240  0.365982E+01  0.236944E-01
   0.122450  0.366056E+01  0.240652E-01
   0.149660  0.366149E+01  0.244440E-01
   0.176870  0.366261E+01  0.248312E-01
   0.204090  0.366392E+01  0.252269E-01
   0.231300  0.366541E+01  0.256314E-01
   0.258510  0.366709E+01  0.260450E-01
   0.285720  0.366896E+01  0.264680E-01
   0.312930  0.367103E+01  0.269007E-01
   0.340140  0.367329E+01  0.273436E-01
   0.367350  0.367574E+01  0.277968E-01
   0.394570  0.367839E+01  0.282611E-01
   0.421780  0.368123E+01  0.287363E-01
   0.448990  0.368428E+01  0.292232E-01
   0.476200  0.368752E+01  0.297220E-01
   0.503410  0.369097E+01  0.302333E-01
   0.530620  0.369463E+01  0.307576E-01
   0.557830  0.369849E+01  0.312952E-01
   0.585040  0.370257E+01  0.318467E-01
   0.612260  0.370686E+01  0.324129E-01
   0.639470  0.371136E+01  0.329939E-01
   0.666680  0.371609E+01  0.335905E-01
   0.693890  0.372104E+01  0.342033E-01
   0.721100  0.372621E+01  0.348330E-01
   0.748310  0.373162E+01  0.354803E-01
   0.775520  0.373726E+01  0.361459E-01
   0.802740  0.374314E+01  0.368309E-01
   0.829950  0.374926E+01  0.375355E-01
   0.857160  0.375563E+01  0.382609E-01
   0.884370  0.376226E+01  0.390080E-01
   0.911580  0.376914E+01  0.397777E-01
   0.938790  0.377628E+01  0.405711E-01
   0.966000  0.378369E+01  0.413893E-01
   0.993220  0.379138E+01  0.422338E-01
   1.020430  0.379935E+01  0.431051E-01
   1.047640  0.380761E+01  0.440049E-01
   1.074850  0.381616E+01  0.449346E-01
   1.102060  0.382502E+01  0.458956E-01
   1.129270  0.383419E+01  0.468897E-01
   1.156480  0.384367E+01  0.479184E-01
   1.183700  0.385349E+01  0.489840E-01
   1.210910  0.386365E+01  0.500876E-01
   1.238120  0.387415E+01  0.512319E-01
   1.265330  0.388501E+01  0.524189E-01
   1.292540  0.389624E+01  0.536512E-01
   1.319750  0.390785E+01  0.549314E-01
   1.346960  0.391985E+01  0.562622E-01
   1.374180  0.393227E+01  0.576473E-01
   1.401390  0.394510E+01  0.590890E-01
   1.428600  0.395837E+01  0.605914E-01
   1.455810  0.397210E+01  0.621583E-01
   1.483020  0.398629E+01  0.637940E-01
   1.510230  0.400098E+01  0.655032E-01
   1.537440  0.401617E+01  0.672909E-01
   1.564660  0.403190E+01  0.691634E-01
   1.591870  0.404817E+01  0.711255E-01
   1.619080  0.406503E+01  0.731845E-01
   1.646290  0.408248E+01  0.753480E-01
   1.673500  0.410056E+01  0.776241E-01
   1.700710  0.411931E+01  0.800219E-01
   1.727920  0.413875E+01  0.825518E-01
   1.755130  0.415892E+01  0.852249E-01
   1.782350  0.417986E+01  0.880553E-01
   1.809560  0.420161E+01  0.910551E-01
   1.836770  0.422421E+01  0.942415E-01
   1.863980  0.424772E+01  0.976331E-01
   1.891190  0.427219E+01  0.101251E+00
   1.918400  0.429768E+01  0.105118E+00
   1.945610  0.432426E+01  0.109263E+00
   1.972830  0.435201E+01  0.113720E+00
   2.000040  0.438099E+01  0.118521E+00
   2.027250  0.441131E+01  0.123712E+00
   2.054460  0.444306E+01  0.129345E+00
   2.081670  0.447636E+01  0.135480E+00
   2.108880  0.451134E+01  0.142189E+00
   2.136090  0.454814E+01  0.149561E+00
   2.163310  0.458695E+01  0.157705E+00
   2.190520  0.462793E+01  0.166748E+00
   2.217730  0.467129E+01  0.176855E+00
   2.244940  0.471731E+01  0.188234E+00
   2.272150  0.476625E+01  0.201147E+00
   2.299360  0.481846E+01  0.215937E+00
   2.326570  0.487430E+01  0.233052E+00
   2.353790  0.493424E+01  0.253103E+00
   2.381000  0.499871E+01  0.276895E+00
   2.408210  0.506821E+01  0.305570E+00
   2.435420  0.514317E+01  0.340724E+00
   2.462630  0.522379E+01  0.384602E+00
   2.489840  0.530962E+01  0.440316E+00
   2.517050  0.539879E+01  0.511896E+00
   2.544270  0.548684E+01  0.603725E+00
   2.571480  0.556560E+01  0.718392E+00
   2.598690  0.562434E+01  0.853590E+00
   2.625900  0.565390E+01  0.999833E+00
   2.653110  0.565238E+01  0.114274E+01
   2.680320  0.562728E+01  0.126995E+01
   2.707530  0.559067E+01  0.137731E+01
   2.734750  0.555179E+01  0.146829E+01
   2.761960  0.551415E+01  0.154848E+01
   2.789170  0.547738E+01  0.162158E+01
   2.816380  0.544060E+01  0.168854E+01
   2.843590  0.540408E+01  0.174929E+01
   2.870800  0.536878E+01  0.180415E+01
   2.898010  0.533555E+01  0.185385E+01
   2.925220  0.530505E+01  0.189926E+01
   2.952440  0.527775E+01  0.194149E+01
   2.979650  0.525357E+01  0.198160E+01
   3.006860  0.523221E+01  0.202025E+01
   3.034070  0.521341E+01  0.205791E+01
   3.061280  0.519693E+01  0.209481E+01
   3.088490  0.518269E+01  0.213104E+01
   3.115700  0.517082E+01  0.216669E+01
   3.142920  0.516158E+01  0.220198E+01
   3.170130  0.515526E+01  0.223726E+01
   3.197340  0.515203E+01  0.227304E+01
   3.224550  0.515198E+01  0.230981E+01
   3.251760  0.515516E+01  0.234800E+01
   3.278970  0.516174E+01  0.238801E+01
   3.306180  0.517198E+01  0.243036E+01
   3.333400  0.518625E+01  0.247576E+01
   3.360610  0.520493E+01  0.252512E+01
   3.387820  0.522837E+01  0.257975E+01
   3.415030  0.525675E+01  0.264138E+01
   3.442240  0.528992E+01  0.271218E+01
   3.469450  0.532719E+01  0.279478E+01
   3.496660  0.536701E+01  0.289236E+01
   3.523880  0.540640E+01  0.300834E+01
   3.551090  0.544060E+01  0.314547E+01
   3.578300  0.546341E+01  0.330517E+01
   3.605510  0.546790E+01  0.348699E+01
   3.632720  0.544670E+01  0.368880E+01
   3.659930  0.539166E+01  0.390644E+01
   3.687140  0.529412E+01  0.413192E+01
   3.714360  0.514754E+01  0.435181E+01
   3.741570  0.495220E+01  0.454830E+01
   3.768780  0.471676E+01  0.470456E+01
   3.795990  0.445678E+01  0.480881E+01
   3.823200  0.419114E+01  0.485694E+01
   3.850410  0.393824E+01  0.485269E+01
   3.877620  0.371302E+01  0.480672E+01
   3.904840  0.352356E+01  0.473469E+01
   3.932050  0.336935E+01  0.465234E+01
   3.959260  0.324374E+01  0.457025E+01
   3.986470  0.313910E+01  0.449328E+01
   4.013680  0.304928E+01  0.442267E+01
   4.040890  0.297007E+01  0.435802E+01
   4.068100  0.289871E+01  0.429846E+01
   4.095310  0.283344E+01  0.424304E+01
   4.122530  0.277307E+01  0.419093E+01
   4.149740  0.271687E+01  0.414146E+01
   4.176950  0.266430E+01  0.409400E+01
   4.204160  0.261505E+01  0.404795E+01
   4.231370  0.256904E+01  0.400271E+01
   4.258580  0.252659E+01  0.395769E+01
   4.285790  0.248845E+01  0.391263E+01
   4.313010  0.245566E+01  0.386777E+01
   4.340220  0.242925E+01  0.382415E+01
   4.367430  0.240982E+01  0.378341E+01
   4.394640  0.239736E+01  0.374771E+01
   4.421850  0.239095E+01  0.371950E+01
   4.449060  0.238861E+01  0.370134E+01
   4.476270  0.238665E+01  0.369550E+01
   4.503490  0.237919E+01  0.370242E+01
   4.530700  0.235981E+01  0.371810E+01
   4.557910  0.232616E+01  0.373452E+01
   4.585120  0.228179E+01  0.374473E+01
   4.612330  0.223233E+01  0.374633E+01
   4.639540  0.218213E+01  0.374008E+01
   4.666750  0.213368E+01  0.372784E+01
   4.693970  0.208806E+01  0.371153E+01
   4.721180  0.204549E+01  0.369266E+01
   4.748390  0.200586E+01  0.367215E+01
   4.775600  0.196910E+01  0.365069E+01
   4.802810  0.193513E+01  0.362891E+01
   4.830020  0.190374E+01  0.360742E+01
   4.857230  0.187463E+01  0.358669E+01
   4.884450  0.184743E+01  0.356710E+01
   4.911660  0.182180E+01  0.354899E+01
   4.938870  0.179730E+01  0.353262E+01
   4.966080  0.177352E+01  0.351825E+01
   4.993290  0.174990E+01  0.350619E+01
   5.020500  0.172550E+01  0.349674E+01
   5.047710  0.169892E+01  0.348973E+01
   5.074930  0.166864E+01  0.348392E+01
   5.102140  0.163421E+01  0.347709E+01
   5.129350  0.159667E+01  0.346724E+01
   5.156560  0.155778E+01  0.345347E+01
   5.183770  0.151909E+01  0.343593E+01
   5.210980  0.148157E+01  0.341518E+01
   5.238190  0.144580E+01  0.339184E+01
   5.265400  0.141214E+01  0.336643E+01
   5.292620  0.138082E+01  0.333948E+01
   5.319830  0.135196E+01  0.331152E+01
   5.347040  0.132553E+01  0.328300E+01
   5.374250  0.130143E+01  0.325424E+01
   5.401460  0.127961E+01  0.322554E+01
   5.428670  0.126003E+01  0.319719E+01
   5.455880  0.124259E+01  0.316950E+01
   5.483100  0.122714E+01  0.314283E+01
   5.510310  0.121345E+01  0.311752E+01
   5.537520  0.120115E+01  0.309387E+01
   5.564730  0.118976E+01  0.307204E+01
   5.591940  0.117874E+01  0.305203E+01
   5.619150  0.116766E+01  0.303359E+01
   5.646360  0.115625E+01  0.301639E+01
   5.673580  0.114442E+01  0.300013E+01
   5.700790  0.113216E+01  0.298455E+01
   5.728000  0.111956E+01  0.296948E+01
   5.755210  0.110673E+01  0.295487E+01
   5.782420  0.109369E+01  0.294079E+01
   5.809630  0.108033E+01  0.292736E+01
   5.836840  0.106639E+01  0.291463E+01
   5.864060  0.105143E+01  0.290249E+01
   5.891270  0.103500E+01  0.289051E+01
   5.918480  0.101688E+01  0.287782E+01
   5.945690  0.997571E+00  0.286343E+01
   5.972900  0.978188E+00  0.284694E+01
   6.000110  0.959638E+00  0.282877E+01
   6.027320  0.942223E+00  0.280959E+01
   6.054540  0.925880E+00  0.278979E+01
   6.081750  0.910532E+00  0.276958E+01
   6.108960  0.896157E+00  0.274904E+01
   6.136170  0.882792E+00  0.272828E+01
   6.163380  0.870454E+00  0.270746E+01
   6.190590  0.859114E+00  0.268673E+01
   6.217800  0.848701E+00  0.266623E+01
   6.245020  0.839124E+00  0.264604E+01
   6.272230  0.830297E+00  0.262623E+01
   6.299440  0.822143E+00  0.260683E+01
   6.326650  0.814605E+00  0.258788E+01
   6.353860  0.807634E+00  0.256941E+01
   6.381070  0.801169E+00  0.255147E+01
   6.408280  0.795110E+00  0.253414E+01
   6.435490  0.789319E+00  0.251742E+01
   6.462710  0.783632E+00  0.250130E+01
   6.489920  0.777908E+00  0.248567E+01
   6.517130  0.772046E+00  0.247035E+01
   6.544340  0.766032E+00  0.245514E+01
   6.571550  0.759977E+00  0.243980E+01
   6.598760  0.754112E+00  0.242420E+01
   6.625970  0.748712E+00  0.240835E+01
   6.653190  0.744000E+00  0.239241E+01
   6.680400  0.740105E+00  0.237662E+01
   6.707610  0.737030E+00  0.236122E+01
   6.734820  0.734663E+00  0.234645E+01
   6.762030  0.732826E+00  0.233243E+01
   6.789240  0.731375E+00  0.231919E+01
   6.816450  0.730229E+00  0.230675E+01
   6.843670  0.729272E+00  0.229522E+01
   6.870880  0.728284E+00  0.228466E+01
   6.898090  0.727001E+00  0.227497E+01
   6.925300  0.725242E+00  0.226595E+01
   6.952510  0.722994E+00  0.225732E+01
   6.979720  0.720411E+00  0.224888E+01
   7.006930  0.717704E+00  0.224061E+01
   7.034150  0.715010E+00  0.223267E+01
   7.061360  0.712316E+00  0.222527E+01
   7.088570  0.709426E+00  0.221860E+01
   7.115780  0.706032E+00  0.221271E+01
   7.142990  0.701790E+00  0.220748E+01
   7.170200  0.696415E+00  0.220258E+01
   7.197410  0.689789E+00  0.219755E+01
   7.224630  0.682087E+00  0.219184E+01
   7.251840  0.673779E+00  0.218512E+01
   7.279050  0.665388E+00  0.217740E+01
   7.306260  0.657268E+00  0.216892E+01
   7.333470  0.649548E+00  0.215997E+01
   7.360680  0.642217E+00  0.215078E+01
   7.387890  0.635202E+00  0.214150E+01
   7.415110  0.628392E+00  0.213223E+01
   7.442320  0.621678E+00  0.212297E+01
   7.469530  0.614979E+00  0.211365E+01
   7.496740  0.608261E+00  0.210420E+01
   7.523950  0.601564E+00  0.209448E+01
   7.551160  0.595044E+00  0.208440E+01
   7.578370  0.588925E+00  0.207399E+01
   7.605580  0.583365E+00  0.206345E+01
   7.632800  0.578372E+00  0.205303E+01
   7.660010  0.573813E+00  0.204294E+01
   7.687220  0.569461E+00  0.203328E+01
   7.714430  0.565114E+00  0.202397E+01
   7.741640  0.560676E+00  0.201485E+01
   7.768850  0.556156E+00  0.200581E+01
   7.796060  0.551620E+00  0.199677E+01
   7.823280  0.547139E+00  0.198769E+01
   7.850490  0.542774E+00  0.197859E+01
   7.877700  0.538559E+00  0.196952E+01
   7.904910  0.534503E+00  0.196052E+01
   7.932120  0.530588E+00  0.195160E+01
   7.959330  0.526803E+00  0.194278E+01
   7.986540  0.523161E+00  0.193405E+01
   8.013760  0.519705E+00  0.192540E+01
   8.040970  0.516481E+00  0.191693E+01
   8.068180  0.513493E+00  0.190872E+01
   8.095390  0.510684E+00  0.190089E+01
   8.122600  0.507934E+00  0.189354E+01
   8.149810  0.505080E+00  0.188668E+01
   8.177020  0.501959E+00  0.188029E+01
   8.204240  0.498446E+00  0.187425E+01
   8.231450  0.494451E+00  0.186845E+01
   8.258660  0.489899E+00  0.186277E+01
   8.285870  0.484738E+00  0.185700E+01
   8.313080  0.478987E+00  0.185094E+01
   8.340290  0.472785E+00  0.184434E+01
   8.367500  0.466389E+00  0.183706E+01
   8.394720  0.460095E+00  0.182910E+01
   8.421930  0.454126E+00  0.182063E+01
   8.449140  0.448561E+00  0.181186E+01
   8.476350  0.443381E+00  0.180292E+01
   8.503560  0.438536E+00  0.179391E+01
   8.530770  0.433999E+00  0.178487E+01
   8.557980  0.429753E+00  0.177585E+01
   8.585200  0.425767E+00  0.176687E+01
   8.612410  0.422007E+00  0.175799E+01
   8.639620  0.418455E+00  0.174920E+01
   8.666830  0.415091E+00  0.174054E+01
   8.694040  0.411855E+00  0.173206E+01
   8.721250  0.408671E+00  0.172372E+01
   8.748460  0.405513E+00  0.171545E+01
   8.775670  0.402411E+00  0.170722E+01
   8.802890  0.399407E+00  0.169902E+01
   8.830100  0.396522E+00  0.169088E+01
   8.857310  0.393758E+00  0.168283E+01
   8.884520  0.391102E+00  0.167490E+01
   8.911730  0.388527E+00  0.166712E+01
   8.938940  0.385985E+00  0.165949E+01
   8.966150  0.383425E+00  0.165201E+01
   8.993370  0.380809E+00  0.164464E+01
   9.020580  0.378129E+00  0.163731E+01
   9.047790  0.375406E+00  0.162999E+01
   9.075000  0.372671E+00  0.162265E+01
   9.102210  0.369943E+00  0.161529E+01
   9.129420  0.367237E+00  0.160791E+01
   9.156630  0.364585E+00  0.160047E+01
   9.183850  0.362034E+00  0.159299E+01
   9.211060  0.359637E+00  0.158549E+01
   9.238270  0.357416E+00  0.157806E+01
   9.265480  0.355342E+00  0.157077E+01
   9.292690  0.353349E+00  0.156364E+01
   9.319900  0.351382E+00  0.155668E+01
   9.347110  0.349409E+00  0.154987E+01
   9.374330  0.347397E+00  0.154319E+01
   9.401540  0.345309E+00  0.153663E+01
   9.428750  0.343114E+00  0.153015E+01
   9.455960  0.340803E+00  0.152368E+01
   9.483170  0.338393E+00  0.151716E+01
   9.510380  0.335930E+00  0.151056E+01
   9.537590  0.333472E+00  0.150385E+01
   9.564810  0.331066E+00  0.149705E+01
   9.592020  0.328749E+00  0.149019E+01
   9.619230  0.326539E+00  0.148330E+01
   9.646440  0.324441E+00  0.147640E+01
   9.673650  0.322451E+00  0.146952E+01
   9.700860  0.320571E+00  0.146266E+01
   9.728070  0.318806E+00  0.145584E+01
   9.755290  0.317160E+00  0.144909E+01
   9.782500  0.315631E+00  0.144245E+01
   9.809710  0.314194E+00  0.143594E+01
   9.836920  0.312796E+00  0.142961E+01
   9.864130  0.311367E+00  0.142344E+01
   9.891340  0.309848E+00  0.141739E+01
   9.918550  0.308224E+00  0.141136E+01
   9.945760  0.306533E+00  0.140530E+01
   9.972980  0.304843E+00  0.139917E+01
  10.000190  0.303233E+00  0.139297E+01
  10.027400  0.301755E+00  0.138677E+01
  10.054610  0.300428E+00  0.138064E+01
  10.081820  0.299228E+00  0.137465E+01
  10.109030  0.298097E+00  0.136886E+01
  10.136240  0.296951E+00  0.136329E+01
  10.163460  0.295705E+00  0.135791E+01
  10.190670  0.294297E+00  0.135265E+01
  10.217880  0.292722E+00  0.134743E+01
  10.245090  0.291030E+00  0.134217E+01
  10.272300  0.289288E+00  0.133689E+01
  10.299510  0.287509E+00  0.133164E+01
  10.326720  0.285629E+00  0.132644E+01
  10.353940  0.283572E+00  0.132124E+01
  10.381150  0.281340E+00  0.131591E+01
  10.408360  0.279005E+00  0.131039E+01
  10.435570  0.276666E+00  0.130463E+01
  10.462780  0.274409E+00  0.129866E+01
  10.489990  0.272300E+00  0.129253E+01
  10.517200  0.270384E+00  0.128628E+01
  10.544420  0.268680E+00  0.127998E+01
  10.571630  0.267189E+00  0.127370E+01
  10.598840  0.265884E+00  0.126750E+01
  10.626050  0.264718E+00  0.126141E+01
  10.653260  0.263637E+00  0.125545E+01
  10.680470  0.262599E+00  0.124960E+01
  10.707680  0.261581E+00  0.124385E+01
  10.734900  0.260573E+00  0.123815E+01
  10.762110  0.259583E+00  0.123250E+01
  10.789320  0.258626E+00  0.122689E+01
  10.816530  0.257710E+00  0.122132E+01
  10.843740  0.256826E+00  0.121581E+01
  10.870950  0.255964E+00  0.121034E+01
  10.898160  0.255123E+00  0.120491E+01
  10.925380  0.254312E+00  0.119950E+01
  10.952590  0.253552E+00  0.119410E+01
  10.979800  0.252866E+00  0.118872E+01
  11.007010  0.252286E+00  0.118338E+01
  11.034220  0.251834E+00  0.117813E+01
  11.061430  0.251500E+00  0.117302E+01
  11.088640  0.251235E+00  0.116811E+01
  11.115850  0.250964E+00  0.116343E+01
  11.143070  0.250607E+00  0.115895E+01
  11.170280  0.250115E+00  0.115461E+01
  11.197490  0.249467E+00  0.115035E+01
  11.224700  0.248674E+00  0.114611E+01
  11.251910  0.247775E+00  0.114182E+01
  11.279120  0.246824E+00  0.113747E+01
  11.306330  0.245887E+00  0.113305E+01
  11.333550  0.245013E+00  0.112861E+01
  11.360760  0.244223E+00  0.112421E+01
  11.387970  0.243496E+00  0.111990E+01
  11.415180  0.242784E+00  0.111572E+01
  11.442390  0.242041E+00  0.111166E+01
  11.469600  0.241245E+00  0.110771E+01
  11.496810  0.240388E+00  0.110386E+01
  11.524030  0.239449E+00  0.110013E+01
  11.551240  0.238365E+00  0.109650E+01
  11.578450  0.237091E+00  0.109292E+01
  11.605660  0.235652E+00  0.108930E+01
  11.632870  0.234100E+00  0.108562E+01
  11.660080  0.232452E+00  0.108191E+01
  11.687290  0.230697E+00  0.107815E+01
  11.714510  0.228835E+00  0.107432E+01
  11.741720  0.226880E+00  0.107039E+01
  11.768930  0.224854E+00  0.106636E+01
  11.796140  0.222774E+00  0.106222E+01
  11.823350  0.220646E+00  0.105796E+01
  11.850560  0.218477E+00  0.105356E+01
  11.877770  0.216291E+00  0.104900E+01
  11.904990  0.214133E+00  0.104425E+01
  11.932200  0.212058E+00  0.103932E+01
  11.959410  0.210115E+00  0.103424E+01
  11.986620  0.208340E+00  0.102903E+01
  12.013830  0.206750E+00  0.102375E+01
  12.041040  0.205356E+00  0.101844E+01
  12.068250  0.204156E+00  0.101315E+01
  12.095470  0.203138E+00  0.100790E+01
  12.122680  0.202277E+00  0.100276E+01
  12.149890  0.201536E+00  0.997727E+00
  12.177100  0.200882E+00  0.992834E+00
  12.204310  0.200267E+00  0.988088E+00
  12.231520  0.199633E+00  0.983474E+00
  12.258730  0.198935E+00  0.978937E+00
  12.285940  0.198181E+00  0.974413E+00
  12.313160  0.197398E+00  0.969860E+00
  12.340370  0.196622E+00  0.965255E+00
  12.367580  0.195897E+00  0.960574E+00
  12.394790  0.195295E+00  0.955818E+00
  12.422000  0.194888E+00  0.951039E+00
  12.449210  0.194705E+00  0.946330E+00
  12.476420  0.194714E+00  0.941778E+00
  12.503640  0.194853E+00  0.937429E+00
  12.530850  0.195065E+00  0.933296E+00
  12.558060  0.195315E+00  0.929369E+00
  12.585270  0.195587E+00  0.925650E+00
  12.612480  0.195860E+00  0.922161E+00
  12.639690  0.196086E+00  0.918929E+00
  12.666900  0.196182E+00  0.915955E+00
  12.694120  0.196065E+00  0.913180E+00
  12.721330  0.195700E+00  0.910514E+00
  12.748540  0.195105E+00  0.907866E+00
  12.775750  0.194322E+00  0.905175E+00
  12.802960  0.193411E+00  0.902399E+00
  12.830170  0.192444E+00  0.899525E+00
  12.857380  0.191489E+00  0.896577E+00
  12.884600  0.190588E+00  0.893608E+00
  12.911810  0.189747E+00  0.890676E+00
  12.939020  0.188950E+00  0.887822E+00
  12.966230  0.188177E+00  0.885069E+00
  12.993440  0.187412E+00  0.882430E+00
  13.020650  0.186650E+00  0.879917E+00
  13.047860  0.185884E+00  0.877557E+00
  13.075080  0.185099E+00  0.875385E+00
  13.102290  0.184256E+00  0.873442E+00
  13.129500  0.183293E+00  0.871752E+00
  13.156710  0.182131E+00  0.870312E+00
  13.183920  0.180697E+00  0.869075E+00
  13.211130  0.178960E+00  0.867965E+00
  13.238340  0.176942E+00  0.866915E+00
  13.265560  0.174690E+00  0.865904E+00
  13.292770  0.172243E+00  0.864962E+00
  13.319980  0.169604E+00  0.864140E+00
  13.347190  0.166741E+00  0.863498E+00
  13.374400  0.163588E+00  0.863099E+00
  13.401610  0.160040E+00  0.862991E+00
  13.428820  0.155950E+00  0.863208E+00
  13.456030  0.151118E+00  0.863749E+00
  13.483250  0.145277E+00  0.864557E+00
  13.510460  0.138082E+00  0.865449E+00
  13.537670  0.129145E+00  0.866002E+00
  13.564880  0.118215E+00  0.865424E+00
